#|--------------------------------------------------------------------------------------------
#| This file contains FM1 channel dependent in-band RSR for 1 band. The Relative
#| Spectral Response (RSR) are from 1% to 1%. For more information, please contact:
#| Jack Xiong <Xiaoxiong.Xiong.1@gsfc.nasa.gov> or Vincent Chiang <vincent_chiang@ssaihq.com>.
#| Note that the channel numbers are in SBRS order (reverse of the product order).
#| Band Channel Wavelength RSR
#|--------------------------------------------------------------------------------------------
 4  1   538.8214 0.010000
 4  1   539.7411 0.022970
 4  1   540.7255 0.056190
 4  1   541.7313 0.126510
 4  1   542.7304 0.243260
 4  1   543.7491 0.409810
 4  1   544.7339 0.599260
 4  1   545.7384 0.775950
 4  1   546.7367 0.898980
 4  1   547.7299 0.965510
 4  1   548.7455 0.985500
 4  1   549.7330 0.992230
 4  1   550.7463 1.000000
 4  1   551.7350 0.994940
 4  1   552.7269 0.982120
 4  1   553.7495 0.978230
 4  1   554.7253 0.968060
 4  1   555.7338 0.957390
 4  1   556.7492 0.957180
 4  1   557.7446 0.950770
 4  1   558.7462 0.936660
 4  1   559.7260 0.914830
 4  1   560.7376 0.869690
 4  1   561.7250 0.787030
 4  1   562.7418 0.671570
 4  1   563.7314 0.527450
 4  1   564.7473 0.350150
 4  1   565.7331 0.195140
 4  1   566.7422 0.086160
 4  1   567.7462 0.031470
 4  1   568.7438 0.011540
 4  1   568.9575 0.010000
 4  2   538.8214 0.010000
 4  2   539.7411 0.022970
 4  2   540.7255 0.056190
 4  2   541.7313 0.126510
 4  2   542.7304 0.243260
 4  2   543.7491 0.409810
 4  2   544.7339 0.599260
 4  2   545.7384 0.775950
 4  2   546.7367 0.898980
 4  2   547.7299 0.965510
 4  2   548.7455 0.985500
 4  2   549.7330 0.992230
 4  2   550.7463 1.000000
 4  2   551.7350 0.994940
 4  2   552.7269 0.982120
 4  2   553.7495 0.978230
 4  2   554.7253 0.968060
 4  2   555.7338 0.957390
 4  2   556.7492 0.957180
 4  2   557.7446 0.950770
 4  2   558.7462 0.936660
 4  2   559.7260 0.914830
 4  2   560.7376 0.869690
 4  2   561.7250 0.787030
 4  2   562.7418 0.671570
 4  2   563.7314 0.527450
 4  2   564.7473 0.350150
 4  2   565.7331 0.195140
 4  2   566.7422 0.086160
 4  2   567.7462 0.031470
 4  2   568.7438 0.011540
 4  2   568.9575 0.010000
 4  3   538.8214 0.010000
 4  3   539.7411 0.022970
 4  3   540.7255 0.056190
 4  3   541.7313 0.126510
 4  3   542.7304 0.243260
 4  3   543.7491 0.409810
 4  3   544.7339 0.599260
 4  3   545.7384 0.775950
 4  3   546.7367 0.898980
 4  3   547.7299 0.965510
 4  3   548.7455 0.985500
 4  3   549.7330 0.992230
 4  3   550.7463 1.000000
 4  3   551.7350 0.994940
 4  3   552.7269 0.982120
 4  3   553.7495 0.978230
 4  3   554.7253 0.968060
 4  3   555.7338 0.957390
 4  3   556.7492 0.957180
 4  3   557.7446 0.950770
 4  3   558.7462 0.936660
 4  3   559.7260 0.914830
 4  3   560.7376 0.869690
 4  3   561.7250 0.787030
 4  3   562.7418 0.671570
 4  3   563.7314 0.527450
 4  3   564.7473 0.350150
 4  3   565.7331 0.195140
 4  3   566.7422 0.086160
 4  3   567.7462 0.031470
 4  3   568.7438 0.011540
 4  3   568.9575 0.010000
 4  4   538.8136 0.010000
 4  4   538.8526 0.010230
 4  4   539.8418 0.025710
 4  4   540.8262 0.062620
 4  4   541.8320 0.139690
 4  4   542.8311 0.266520
 4  4   543.8498 0.441720
 4  4   544.8346 0.632290
 4  4   545.8391 0.802060
 4  4   546.8374 0.915320
 4  4   547.8306 0.972500
 4  4   548.8462 0.988490
 4  4   549.8337 0.993800
 4  4   550.8470 1.000000
 4  4   551.8357 0.995660
 4  4   552.8276 0.985440
 4  4   553.8502 0.981720
 4  4   554.8260 0.975710
 4  4   555.8345 0.972070
 4  4   556.8499 0.973010
 4  4   557.8453 0.970670
 4  4   558.8469 0.957750
 4  4   559.8267 0.936790
 4  4   560.8383 0.888000
 4  4   561.8257 0.799860
 4  4   562.8425 0.670050
 4  4   563.8321 0.509490
 4  4   564.8480 0.324820
 4  4   565.8338 0.174100
 4  4   566.8429 0.074270
 4  4   567.8469 0.027120
 4  4   568.8445 0.010080
 4  4   568.8577 0.010000
 4  5   538.7649 0.010000
 4  5   538.9278 0.011060
 4  5   539.9170 0.028240
 4  5   540.9014 0.068450
 4  5   541.9072 0.150380
 4  5   542.9063 0.282930
 4  5   543.9250 0.461610
 4  5   544.9098 0.652020
 4  5   545.9143 0.816530
 4  5   546.9126 0.923930
 4  5   547.9058 0.975880
 4  5   548.9214 0.989620
 4  5   549.9089 0.994800
 4  5   550.9222 1.000000
 4  5   551.9109 0.995320
 4  5   552.9028 0.986030
 4  5   553.9254 0.982810
 4  5   554.9012 0.978770
 4  5   555.9097 0.977430
 4  5   556.9251 0.979430
 4  5   557.9205 0.977970
 4  5   558.9221 0.965190
 4  5   559.9019 0.945200
 4  5   560.9135 0.893890
 4  5   561.9009 0.801790
 4  5   562.9177 0.664150
 4  5   563.9073 0.496250
 4  5   564.9232 0.309240
 4  5   565.9090 0.162010
 4  5   566.9181 0.067580
 4  5   567.9221 0.024400
 4  5   568.8598 0.010000
 4  6   538.6930 0.010000
 4  6   538.9968 0.012150
 4  6   539.9860 0.030710
 4  6   540.9704 0.073470
 4  6   541.9762 0.159250
 4  6   542.9753 0.295610
 4  6   543.9940 0.476420
 4  6   544.9788 0.666410
 4  6   545.9833 0.827050
 4  6   546.9816 0.929910
 4  6   547.9748 0.978580
 4  6   548.9904 0.990800
 4  6   549.9779 0.995510
 4  6   550.9911 1.000000
 4  6   551.9799 0.995140
 4  6   552.9718 0.986240
 4  6   553.9944 0.983290
 4  6   554.9702 0.980190
 4  6   555.9787 0.979700
 4  6   556.9941 0.981840
 4  6   557.9895 0.980500
 4  6   558.9911 0.967640
 4  6   559.9709 0.946750
 4  6   560.9825 0.892880
 4  6   561.9698 0.798520
 4  6   562.9867 0.655660
 4  6   563.9763 0.484380
 4  6   564.9922 0.296900
 4  6   565.9780 0.153100
 4  6   566.9871 0.062890
 4  6   567.9911 0.022650
 4  6   568.8816 0.010000
 4  7   538.6588 0.010000
 4  7   539.0565 0.012990
 4  7   540.0457 0.032630
 4  7   541.0302 0.077580
 4  7   542.0359 0.166440
 4  7   543.0350 0.305900
 4  7   544.0537 0.488360
 4  7   545.0385 0.677330
 4  7   546.0430 0.835010
 4  7   547.0413 0.934190
 4  7   548.0345 0.980260
 4  7   549.0501 0.991640
 4  7   550.0377 0.996070
 4  7   551.0509 1.000000
 4  7   552.0396 0.994870
 4  7   553.0316 0.986160
 4  7   554.0541 0.983520
 4  7   555.0299 0.981020
 4  7   556.0385 0.981080
 4  7   557.0538 0.983230
 4  7   558.0493 0.981720
 4  7   559.0508 0.967920
 4  7   560.0306 0.945650
 4  7   561.0422 0.889530
 4  7   562.0296 0.792350
 4  7   563.0464 0.646310
 4  7   564.0360 0.473080
 4  7   565.0519 0.286420
 4  7   566.0377 0.145670
 4  7   567.0468 0.059280
 4  7   568.0508 0.021430
 4  7   568.9023 0.010000
 4  8   538.6605 0.010000
 4  8   539.1085 0.013570
 4  8   540.0977 0.034360
 4  8   541.0821 0.081300
 4  8   542.0879 0.172790
 4  8   543.0870 0.314510
 4  8   544.1057 0.498040
 4  8   545.0905 0.685910
 4  8   546.0950 0.840970
 4  8   547.0933 0.937320
 4  8   548.0865 0.981780
 4  8   549.1021 0.992520
 4  8   550.0896 0.996660
 4  8   551.1028 1.000000
 4  8   552.0916 0.994670
 4  8   553.0835 0.986050
 4  8   554.1061 0.983860
 4  8   555.0818 0.981650
 4  8   556.0904 0.981840
 4  8   557.1058 0.983720
 4  8   558.1012 0.981830
 4  8   559.1028 0.967430
 4  8   560.0826 0.943790
 4  8   561.0942 0.885320
 4  8   562.0815 0.785500
 4  8   563.0984 0.637280
 4  8   564.0880 0.462750
 4  8   565.1039 0.277540
 4  8   566.0897 0.139620
 4  8   567.0988 0.056210
 4  8   568.1028 0.020250
 4  8   568.9175 0.010000
 4  9   538.6493 0.010000
 4  9   539.1432 0.014100
 4  9   540.1324 0.035700
 4  9   541.1168 0.083990
 4  9   542.1226 0.177000
 4  9   543.1217 0.320080
 4  9   544.1404 0.504220
 4  9   545.1252 0.691330
 4  9   546.1297 0.844580
 4  9   547.1280 0.939740
 4  9   548.1212 0.983050
 4  9   549.1368 0.993230
 4  9   550.1243 0.997220
 4  9   551.1376 1.000000
 4  9   552.1263 0.994480
 4  9   553.1182 0.986220
 4  9   554.1408 0.984250
 4  9   555.1166 0.982420
 4  9   556.1251 0.982840
 4  9   557.1405 0.984420
 4  9   558.1359 0.982230
 4  9   559.1375 0.967180
 4  9   560.1173 0.942610
 4  9   561.1289 0.882110
 4  9   562.1163 0.780670
 4  9   563.1331 0.631410
 4  9   564.1227 0.456420
 4  9   565.1386 0.272240
 4  9   566.1244 0.135840
 4  9   567.1335 0.054390
 4  9   568.1375 0.019530
 4  9   568.9225 0.010000
 4 10   538.6310 0.010000
 4 10   539.1706 0.014670
 4 10   540.1598 0.036880
 4 10   541.1442 0.086690
 4 10   542.1500 0.181110
 4 10   543.1491 0.325270
 4 10   544.1678 0.509380
 4 10   545.1526 0.695430
 4 10   546.1571 0.847120
 4 10   547.1554 0.941000
 4 10   548.1486 0.983370
 4 10   549.1642 0.993630
 4 10   550.1517 0.997710
 4 10   551.1650 1.000000
 4 10   552.1537 0.994620
 4 10   553.1456 0.986440
 4 10   554.1682 0.984570
 4 10   555.1440 0.982840
 4 10   556.1525 0.983440
 4 10   557.1679 0.984730
 4 10   558.1633 0.982260
 4 10   559.1649 0.966500
 4 10   560.1447 0.941080
 4 10   561.1563 0.879180
 4 10   562.1437 0.776820
 4 10   563.1605 0.626710
 4 10   564.1501 0.451740
 4 10   565.1660 0.268600
 4 10   566.1518 0.133700
 4 10   567.1609 0.053230
 4 10   568.1649 0.019110
 4 10   568.9299 0.010000
 4 11   538.6083 0.010000
 4 11   539.1894 0.015240
 4 11   540.1786 0.038450
 4 11   541.1630 0.089030
 4 11   542.1688 0.184420
 4 11   543.1679 0.328690
 4 11   544.1866 0.512510
 4 11   545.1714 0.697890
 4 11   546.1759 0.849120
 4 11   547.1742 0.942690
 4 11   548.1674 0.984610
 4 11   549.1830 0.994180
 4 11   550.1705 0.997970
 4 11   551.1838 1.000000
 4 11   552.1725 0.994390
 4 11   553.1644 0.986800
 4 11   554.1870 0.985330
 4 11   555.1628 0.983970
 4 11   556.1713 0.984450
 4 11   557.1867 0.985390
 4 11   558.1821 0.982210
 4 11   559.1837 0.966000
 4 11   560.1635 0.939290
 4 11   561.1751 0.876170
 4 11   562.1625 0.773000
 4 11   563.1793 0.623400
 4 11   564.1689 0.449120
 4 11   565.1848 0.266930
 4 11   566.1706 0.132940
 4 11   567.1797 0.052860
 4 11   568.1837 0.019100
 4 11   568.9485 0.010000
 4 12   538.5873 0.010000
 4 12   539.1993 0.015740
 4 12   540.1885 0.039550
 4 12   541.1730 0.090760
 4 12   542.1788 0.186570
 4 12   543.1779 0.330700
 4 12   544.1965 0.513570
 4 12   545.1813 0.698380
 4 12   546.1859 0.849130
 4 12   547.1841 0.942740
 4 12   548.1774 0.984630
 4 12   549.1929 0.994310
 4 12   550.1805 0.998150
 4 12   551.1937 1.000000
 4 12   552.1824 0.994430
 4 12   553.1744 0.986870
 4 12   554.1970 0.985470
 4 12   555.1727 0.984350
 4 12   556.1813 0.984810
 4 12   557.1967 0.985120
 4 12   558.1921 0.981720
 4 12   559.1937 0.965340
 4 12   560.1735 0.938290
 4 12   561.1851 0.874100
 4 12   562.1724 0.770430
 4 12   563.1893 0.621530
 4 12   564.1788 0.448170
 4 12   565.1948 0.266740
 4 12   566.1805 0.132870
 4 12   567.1896 0.052770
 4 12   568.1937 0.018990
 4 12   568.9518 0.010000
 4 13   538.5649 0.010000
 4 13   539.1946 0.015980
 4 13   540.1838 0.040020
 4 13   541.1682 0.091640
 4 13   542.1740 0.186950
 4 13   543.1731 0.330100
 4 13   544.1918 0.511280
 4 13   545.1766 0.695130
 4 13   546.1811 0.846340
 4 13   547.1794 0.940960
 4 13   548.1726 0.984060
 4 13   549.1882 0.994200
 4 13   550.1757 0.998230
 4 13   551.1890 1.000000
 4 13   552.1777 0.994000
 4 13   553.1696 0.986420
 4 13   554.1922 0.985000
 4 13   555.1680 0.983840
 4 13   556.1765 0.984250
 4 13   557.1919 0.984520
 4 13   558.1873 0.981160
 4 13   559.1889 0.964750
 4 13   560.1687 0.936820
 4 13   561.1803 0.871930
 4 13   562.1677 0.768660
 4 13   563.1845 0.621180
 4 13   564.1741 0.449310
 4 13   565.1900 0.268710
 4 13   566.1758 0.134420
 4 13   567.1849 0.053670
 4 13   568.1889 0.019300
 4 13   568.9601 0.010000
 4 14   538.5266 0.010000
 4 14   539.1851 0.016410
 4 14   540.1743 0.040580
 4 14   541.1588 0.092340
 4 14   542.1646 0.187150
 4 14   543.1636 0.328740
 4 14   544.1823 0.507960
 4 14   545.1671 0.690820
 4 14   546.1716 0.842490
 4 14   547.1699 0.938850
 4 14   548.1631 0.982890
 4 14   549.1787 0.993830
 4 14   550.1663 0.998000
 4 14   551.1795 1.000000
 4 14   552.1682 0.994000
 4 14   553.1602 0.986610
 4 14   554.1827 0.985230
 4 14   555.1585 0.983920
 4 14   556.1671 0.983880
 4 14   557.1824 0.983390
 4 14   558.1779 0.979670
 4 14   559.1794 0.963450
 4 14   560.1592 0.935120
 4 14   561.1708 0.869530
 4 14   562.1582 0.766700
 4 14   563.1750 0.621450
 4 14   564.1646 0.452320
 4 14   565.1805 0.273020
 4 14   566.1663 0.137580
 4 14   567.1754 0.055310
 4 14   568.1794 0.019910
 4 14   568.9760 0.010000
 4 15   538.4938 0.010000
 4 15   539.1662 0.016590
 4 15   540.1554 0.040810
 4 15   541.1398 0.092200
 4 15   542.1456 0.185900
 4 15   543.1447 0.325460
 4 15   544.1634 0.502780
 4 15   545.1482 0.684970
 4 15   546.1527 0.838140
 4 15   547.1510 0.936460
 4 15   548.1442 0.981930
 4 15   549.1598 0.993630
 4 15   550.1473 0.997700
 4 15   551.1606 1.000000
 4 15   552.1493 0.993990
 4 15   553.1412 0.986690
 4 15   554.1638 0.985570
 4 15   555.1396 0.983910
 4 15   556.1481 0.983040
 4 15   557.1635 0.981550
 4 15   558.1589 0.977190
 4 15   559.1605 0.960700
 4 15   560.1403 0.932230
 4 15   561.1519 0.866730
 4 15   562.1393 0.765330
 4 15   563.1561 0.623050
 4 15   564.1457 0.457050
 4 15   565.1616 0.278860
 4 15   566.1474 0.142430
 4 15   567.1565 0.057730
 4 15   568.1605 0.020860
 4 15   568.9939 0.010000
 4 16   538.4575 0.010000
 4 16   539.1258 0.016590
 4 16   540.1150 0.040580
 4 16   541.0994 0.091050
 4 16   542.1052 0.183090
 4 16   543.1043 0.319900
 4 16   544.1230 0.494470
 4 16   545.1078 0.675570
 4 16   546.1123 0.830240
 4 16   547.1106 0.931340
 4 16   548.1038 0.979880
 4 16   549.1194 0.992710
 4 16   550.1069 0.997200
 4 16   551.1202 1.000000
 4 16   552.1089 0.994020
 4 16   553.1008 0.986660
 4 16   554.1234 0.985830
 4 16   555.0992 0.984010
 4 16   556.1077 0.982980
 4 16   557.1231 0.981130
 4 16   558.1185 0.976860
 4 16   559.1201 0.961110
 4 16   560.0999 0.932350
 4 16   561.1115 0.867710
 4 16   562.0989 0.767930
 4 16   563.1157 0.628200
 4 16   564.1053 0.464920
 4 16   565.1212 0.287460
 4 16   566.1070 0.149150
 4 16   567.1161 0.061210
 4 16   568.1201 0.022260
 4 16   568.9937 0.010000
 4 17   538.3799 0.010000
 4 17   539.0915 0.017260
 4 17   540.0807 0.042140
 4 17   541.0651 0.093470
 4 17   542.0709 0.184830
 4 17   543.0700 0.318660
 4 17   544.0887 0.487710
 4 17   545.0735 0.665190
 4 17   546.0780 0.819470
 4 17   547.0763 0.926410
 4 17   548.0695 0.976800
 4 17   549.0851 0.992090
 4 17   550.0726 0.996380
 4 17   551.0859 1.000000
 4 17   552.0746 0.993870
 4 17   553.0665 0.986450
 4 17   554.0891 0.985990
 4 17   555.0649 0.985700
 4 17   556.0734 0.983920
 4 17   557.0888 0.980560
 4 17   558.0842 0.975380
 4 17   559.0858 0.959060
 4 17   560.0656 0.930170
 4 17   561.0772 0.865300
 4 17   562.0646 0.764770
 4 17   563.0814 0.629440
 4 17   564.0710 0.473500
 4 17   565.0869 0.300900
 4 17   566.0727 0.160630
 4 17   567.0818 0.067660
 4 17   568.0858 0.024720
 4 17   569.0283 0.010000
 4 18   538.3799 0.010000
 4 18   539.0915 0.017260
 4 18   540.0807 0.042140
 4 18   541.0651 0.093470
 4 18   542.0709 0.184830
 4 18   543.0700 0.318660
 4 18   544.0887 0.487710
 4 18   545.0735 0.665190
 4 18   546.0780 0.819470
 4 18   547.0763 0.926410
 4 18   548.0695 0.976800
 4 18   549.0851 0.992090
 4 18   550.0726 0.996380
 4 18   551.0859 1.000000
 4 18   552.0746 0.993870
 4 18   553.0665 0.986450
 4 18   554.0891 0.985990
 4 18   555.0649 0.985700
 4 18   556.0734 0.983920
 4 18   557.0888 0.980560
 4 18   558.0842 0.975380
 4 18   559.0858 0.959060
 4 18   560.0656 0.930170
 4 18   561.0772 0.865300
 4 18   562.0646 0.764770
 4 18   563.0814 0.629440
 4 18   564.0710 0.473500
 4 18   565.0869 0.300900
 4 18   566.0727 0.160630
 4 18   567.0818 0.067660
 4 18   568.0858 0.024720
 4 18   569.0283 0.010000
 4 19   538.3799 0.010000
 4 19   539.0915 0.017260
 4 19   540.0807 0.042140
 4 19   541.0651 0.093470
 4 19   542.0709 0.184830
 4 19   543.0700 0.318660
 4 19   544.0887 0.487710
 4 19   545.0735 0.665190
 4 19   546.0780 0.819470
 4 19   547.0763 0.926410
 4 19   548.0695 0.976800
 4 19   549.0851 0.992090
 4 19   550.0726 0.996380
 4 19   551.0859 1.000000
 4 19   552.0746 0.993870
 4 19   553.0665 0.986450
 4 19   554.0891 0.985990
 4 19   555.0649 0.985700
 4 19   556.0734 0.983920
 4 19   557.0888 0.980560
 4 19   558.0842 0.975380
 4 19   559.0858 0.959060
 4 19   560.0656 0.930170
 4 19   561.0772 0.865300
 4 19   562.0646 0.764770
 4 19   563.0814 0.629440
 4 19   564.0710 0.473500
 4 19   565.0869 0.300900
 4 19   566.0727 0.160630
 4 19   567.0818 0.067660
 4 19   568.0858 0.024720
 4 19   569.0283 0.010000
 4 20   538.3799 0.010000
 4 20   539.0915 0.017260
 4 20   540.0807 0.042140
 4 20   541.0651 0.093470
 4 20   542.0709 0.184830
 4 20   543.0700 0.318660
 4 20   544.0887 0.487710
 4 20   545.0735 0.665190
 4 20   546.0780 0.819470
 4 20   547.0763 0.926410
 4 20   548.0695 0.976800
 4 20   549.0851 0.992090
 4 20   550.0726 0.996380
 4 20   551.0859 1.000000
 4 20   552.0746 0.993870
 4 20   553.0665 0.986450
 4 20   554.0891 0.985990
 4 20   555.0649 0.985700
 4 20   556.0734 0.983920
 4 20   557.0888 0.980560
 4 20   558.0842 0.975380
 4 20   559.0858 0.959060
 4 20   560.0656 0.930170
 4 20   561.0772 0.865300
 4 20   562.0646 0.764770
 4 20   563.0814 0.629440
 4 20   564.0710 0.473500
 4 20   565.0869 0.300900
 4 20   566.0727 0.160630
 4 20   567.0818 0.067660
 4 20   568.0858 0.024720
 4 20   569.0283 0.010000
