#|--------------------------------------------------------------------------------------------
#| This file contains FM1 channel dependent in-band RSR for 1 band. The Relative
#| Spectral Response (RSR) are from 1% to 1%. For more information, please contact:
#| Jack Xiong <Xiaoxiong.Xiong.1@gsfc.nasa.gov> or Vincent Chiang <vincent_chiang@ssaihq.com>.
#| Note that the channel numbers are in SBRS order (reverse of the product order).
#| Band Channel Wavelength RSR
#|--------------------------------------------------------------------------------------------
16  1   851.3110 0.010000
16  1   851.4166 0.010500
16  1   852.3990 0.020290
16  1   853.3981 0.039510
16  1   854.4147 0.073120
16  1   855.4031 0.124650
16  1   856.4127 0.203560
16  1   857.3984 0.304250
16  1   858.4096 0.425950
16  1   859.4009 0.556460
16  1   860.3977 0.691550
16  1   861.4010 0.804880
16  1   862.4117 0.910920
16  1   863.4055 0.967190
16  1   864.4061 1.000000
16  1   865.4127 0.991500
16  1   866.3994 0.958500
16  1   867.4138 0.958760
16  1   868.4050 0.936760
16  1   869.3956 0.922630
16  1   870.4088 0.886690
16  1   871.4177 0.840790
16  1   872.3966 0.772010
16  1   873.4173 0.724050
16  1   874.4060 0.639610
16  1   875.4104 0.513360
16  1   876.4067 0.339480
16  1   877.4190 0.173560
16  1   878.4016 0.083270
16  1   879.4029 0.043790
16  1   880.4016 0.026150
16  1   881.3997 0.016740
16  1   882.3996 0.011500
16  1   882.8335 0.010000
16  2   851.6723 0.010000
16  2   851.7756 0.010510
16  2   852.7580 0.020540
16  2   853.7571 0.039270
16  2   854.7737 0.073090
16  2   855.7621 0.126760
16  2   856.7717 0.207070
16  2   857.7574 0.311530
16  2   858.7686 0.438250
16  2   859.7599 0.571870
16  2   860.7567 0.703540
16  2   861.7600 0.818050
16  2   862.7707 0.910380
16  2   863.7645 0.970260
16  2   864.7651 0.997510
16  2   865.7717 1.000000
16  2   866.7584 0.983480
16  2   867.7728 0.970440
16  2   868.7640 0.957760
16  2   869.7546 0.942110
16  2   870.7678 0.903490
16  2   871.7767 0.832310
16  2   872.7556 0.740240
16  2   873.7763 0.637500
16  2   874.7650 0.521150
16  2   875.7694 0.382980
16  2   876.7657 0.231500
16  2   877.7780 0.113510
16  2   878.7606 0.055990
16  2   879.7619 0.031140
16  2   880.7606 0.019070
16  2   881.7587 0.012520
16  2   882.3918 0.010000
16  3   851.7179 0.010000
16  3   852.0342 0.011830
16  3   853.0166 0.023140
16  3   854.0157 0.044250
16  3   855.0323 0.082060
16  3   856.0207 0.141210
16  3   857.0303 0.227710
16  3   858.0160 0.337600
16  3   859.0272 0.468950
16  3   860.0185 0.602540
16  3   861.0153 0.730760
16  3   862.0186 0.840220
16  3   863.0293 0.925640
16  3   864.0231 0.977400
16  3   865.0237 1.000000
16  3   866.0303 0.997410
16  3   867.0170 0.981890
16  3   868.0314 0.967970
16  3   869.0226 0.958410
16  3   870.0132 0.943140
16  3   871.0264 0.894310
16  3   872.0353 0.809170
16  3   873.0142 0.708910
16  3   874.0349 0.596320
16  3   875.0236 0.476220
16  3   876.0280 0.334550
16  3   877.0243 0.191670
16  3   878.0366 0.091930
16  3   879.0192 0.046710
16  3   880.0205 0.026340
16  3   881.0192 0.016380
16  3   882.0173 0.011070
16  3   882.3096 0.010000
16  4   851.7020 0.010000
16  4   852.1910 0.013080
16  4   853.1735 0.025710
16  4   854.1725 0.048690
16  4   855.1891 0.089600
16  4   856.1776 0.152610
16  4   857.1872 0.242970
16  4   858.1729 0.356400
16  4   859.1841 0.488850
16  4   860.1754 0.621620
16  4   861.1722 0.747060
16  4   862.1755 0.853920
16  4   863.1862 0.933150
16  4   864.1800 0.982040
16  4   865.1805 1.000000
16  4   866.1872 0.994170
16  4   867.1739 0.979200
16  4   868.1883 0.965950
16  4   869.1794 0.957150
16  4   870.1700 0.938880
16  4   871.1833 0.882300
16  4   872.1921 0.792400
16  4   873.1711 0.688930
16  4   874.1918 0.576050
16  4   875.1805 0.453520
16  4   876.1849 0.309690
16  4   877.1812 0.170270
16  4   878.1935 0.082040
16  4   879.1761 0.042360
16  4   880.1774 0.024480
16  4   881.1761 0.015750
16  4   882.1742 0.010400
16  4   882.2992 0.010000
16  5   851.6703 0.010000
16  5   852.2896 0.014230
16  5   853.2720 0.027570
16  5   854.2711 0.052030
16  5   855.2877 0.094570
16  5   856.2761 0.159820
16  5   857.2857 0.253540
16  5   858.2714 0.368290
16  5   859.2826 0.501330
16  5   860.2739 0.633870
16  5   861.2707 0.757900
16  5   862.2740 0.862050
16  5   863.2847 0.938740
16  5   864.2785 0.984780
16  5   865.2791 1.000000
16  5   866.2857 0.993010
16  5   867.2724 0.979160
16  5   868.2868 0.966130
16  5   869.2780 0.957650
16  5   870.2686 0.936280
16  5   871.2818 0.875200
16  5   872.2906 0.782050
16  5   873.2696 0.678210
16  5   874.2903 0.563260
16  5   875.2790 0.439090
16  5   876.2834 0.294650
16  5   877.2797 0.159210
16  5   878.2920 0.076450
16  5   879.2746 0.039860
16  5   880.2759 0.023370
16  5   881.2746 0.014970
16  5   882.2727 0.010030
16  5   882.2821 0.010000
16  6   851.5717 0.010000
16  6   852.3207 0.015390
16  6   853.3031 0.029050
16  6   854.3022 0.053940
16  6   855.3188 0.097950
16  6   856.3072 0.162930
16  6   857.3168 0.256910
16  6   858.3025 0.373140
16  6   859.3137 0.503550
16  6   860.3050 0.637790
16  6   861.3018 0.762720
16  6   862.3051 0.862420
16  6   863.3158 0.944630
16  6   864.3096 0.984890
16  6   865.3102 1.000000
16  6   866.3168 0.995670
16  6   867.3035 0.977980
16  6   868.3179 0.968020
16  6   869.3091 0.957720
16  6   870.2997 0.933970
16  6   871.3129 0.872560
16  6   872.3218 0.777790
16  6   873.3007 0.679050
16  6   874.3214 0.560660
16  6   875.3101 0.438080
16  6   876.3145 0.292700
16  6   877.3108 0.160530
16  6   878.3231 0.074510
16  6   879.3057 0.040180
16  6   880.3070 0.023400
16  6   881.3057 0.014630
16  6   882.3038 0.010180
16  6   882.3578 0.010000
16  7   851.4409 0.010000
16  7   852.3046 0.016190
16  7   853.2870 0.029630
16  7   854.2861 0.054520
16  7   855.3027 0.097400
16  7   856.2911 0.161900
16  7   857.3008 0.254810
16  7   858.2864 0.368120
16  7   859.2977 0.497510
16  7   860.2889 0.631740
16  7   861.2858 0.754580
16  7   862.2891 0.857840
16  7   863.2997 0.940620
16  7   864.2936 0.979810
16  7   865.2941 1.000000
16  7   866.3008 0.996180
16  7   867.2875 0.979200
16  7   868.3019 0.971980
16  7   869.2930 0.958260
16  7   870.2836 0.932950
16  7   871.2969 0.869410
16  7   872.3057 0.778610
16  7   873.2847 0.679840
16  7   874.3054 0.560970
16  7   875.2941 0.441830
16  7   876.2985 0.297700
16  7   877.2947 0.164350
16  7   878.3071 0.076090
16  7   879.2897 0.041900
16  7   880.2910 0.023630
16  7   881.2897 0.015170
16  7   882.2878 0.010440
16  7   882.4135 0.010000
16  8   851.5368 0.010000
16  8   852.1566 0.014020
16  8   853.1390 0.026560
16  8   854.1381 0.050300
16  8   855.1547 0.090920
16  8   856.1431 0.152630
16  8   857.1527 0.242130
16  8   858.1384 0.352030
16  8   859.1496 0.480700
16  8   860.1409 0.611660
16  8   861.1377 0.738150
16  8   862.1410 0.847320
16  8   863.1517 0.928880
16  8   864.1455 0.980970
16  8   865.1461 1.000000
16  8   866.1527 0.998750
16  8   867.1394 0.990600
16  8   868.1538 0.977970
16  8   869.1450 0.968170
16  8   870.1356 0.940290
16  8   871.1488 0.882000
16  8   872.1577 0.792640
16  8   873.1366 0.692470
16  8   874.1573 0.579420
16  8   875.1460 0.457370
16  8   876.1504 0.315740
16  8   877.1467 0.177260
16  8   878.1590 0.085950
16  8   879.1416 0.044030
16  8   880.1429 0.025570
16  8   881.1416 0.016040
16  8   882.1397 0.010660
16  8   882.3397 0.010000
16  9   851.4545 0.010000
16  9   851.9429 0.013230
16  9   852.9253 0.025210
16  9   853.9244 0.047340
16  9   854.9410 0.085730
16  9   855.9294 0.144460
16  9   856.9390 0.228820
16  9   857.9247 0.333450
16  9   858.9359 0.455760
16  9   859.9272 0.584770
16  9   860.9240 0.713040
16  9   861.9273 0.827830
16  9   862.9380 0.919790
16  9   863.9318 0.973000
16  9   864.9324 0.997980
16  9   865.9390 1.000000
16  9   866.9257 0.993220
16  9   867.9401 0.989000
16  9   868.9313 0.980350
16  9   869.9219 0.951840
16  9   870.9351 0.889020
16  9   871.9440 0.803060
16  9   872.9229 0.712380
16  9   873.9436 0.608480
16  9   874.9323 0.498670
16  9   875.9367 0.362400
16  9   876.9330 0.215550
16  9   877.9453 0.104430
16  9   878.9279 0.052970
16  9   879.9292 0.029440
16  9   880.9279 0.017850
16  9   881.9260 0.011920
16  9   882.4145 0.010000
16 10   851.4545 0.010000
16 10   851.9429 0.013230
16 10   852.9253 0.025210
16 10   853.9244 0.047340
16 10   854.9410 0.085730
16 10   855.9294 0.144460
16 10   856.9390 0.228820
16 10   857.9247 0.333450
16 10   858.9359 0.455760
16 10   859.9272 0.584770
16 10   860.9240 0.713040
16 10   861.9273 0.827830
16 10   862.9380 0.919790
16 10   863.9318 0.973000
16 10   864.9324 0.997980
16 10   865.9390 1.000000
16 10   866.9257 0.993220
16 10   867.9401 0.989000
16 10   868.9313 0.980350
16 10   869.9219 0.951840
16 10   870.9351 0.889020
16 10   871.9440 0.803060
16 10   872.9229 0.712380
16 10   873.9436 0.608480
16 10   874.9323 0.498670
16 10   875.9367 0.362400
16 10   876.9330 0.215550
16 10   877.9453 0.104430
16 10   878.9279 0.052970
16 10   879.9292 0.029440
16 10   880.9279 0.017850
16 10   881.9260 0.011920
16 10   882.4145 0.010000
